File: Ex Situ XRD/STF5 850C 97H2 4Hr.txt
         ID:

    Comment:

Scan Type: Normal
Start Angle: 15 deg.
Stop Angle: 90 deg.
Num Points: 3751
Step Size: 0.02 deg.
Datafile Res: 1600
Scan Rate: 1.000000
Scan Mode: Continuous
Wavelength: 1.540562

Diffractometer Optics:
		Detector:
			 Type: Fixed Slits
			 X2 Configuration: No
		Tube:
			 Type: Fixed Slits
			 X2 Configuration: No

Axis[0]
	 Selected   : no
	 Iterative  : no
	 Start Angle: 0.000000
	 Stop Angle : 0.000000
	 Step Size  : 0.000000
	 Oscillating: no

Axis[1]
	 Selected   : no
	 Iterative  : no
	 Start Angle: 0.000000
	 Stop Angle : 0.000000
	 Step Size  : 0.000000
	 Oscillating: no

Axis[2]
	 Selected   : no
	 Iterative  : no
	 Start Angle: 0.000000
	 Stop Angle : 0.000000
	 Step Size  : 0.000000
	 Oscillating: no

Axis[3]
	 Selected   : no
	 Iterative  : no
	 Start Angle: 0.000000
	 Stop Angle : 0.000000
	 Step Size  : 0.000000
	 Oscillating: no

Axis[4]
	 Selected   : no
	 Iterative  : no
	 Start Angle: 0.000000
	 Stop Angle : 0.000000
	 Step Size  : 0.000000
	 Oscillating: no

Axis[5]
	 Selected   : no
	 Iterative  : no
	 Start Angle: 0.000000
	 Stop Angle : 0.000000
	 Step Size  : 0.000000
	 Oscillating: no

Axis[6]
	 Selected   : no
	 Iterative  : no
	 Start Angle: 0.000000
	 Stop Angle : 0.000000
	 Step Size  : 0.000000
	 Oscillating: no

Axis[7]
	 Selected   : no
	 Iterative  : no
	 Start Angle: 0.000000
	 Stop Angle : 0.000000
	 Step Size  : 0.000000
	 Oscillating: no

Axis[8]
	 Selected   : no
	 Iterative  : no
	 Start Angle: 0.000000
	 Stop Angle : 0.000000
	 Step Size  : 0.000000
	 Oscillating: no

Axis[9]
	 Selected   : no
	 Iterative  : no
	 Start Angle: 0.000000
	 Stop Angle : 0.000000
	 Step Size  : 0.000000
	 Oscillating: no

	   Deg.    Counts 	   Time 	    ESD

Range 0
  15.000	       108	    1200	    10.392
  15.320	       119	    1200	    10.909
  15.640	       128	    1200	    11.314
  15.960	       105	    1200	    10.247
  16.280	       136	    1200	    11.662
  16.600	       104	    1200	    10.198
  16.920	       117	    1200	    10.817
  17.240	       114	    1200	    10.677
  17.560	       113	    1200	    10.630
  17.880	       134	    1200	    11.576
  18.200	       122	    1200	    11.045
  18.520	       113	    1200	    10.630
  18.840	       123	    1200	    11.091
  19.160	       135	    1200	    11.619
  19.480	       129	    1200	    11.358
  19.800	       125	    1200	    11.180
  20.120	       120	    1200	    10.954
  20.440	       126	    1200	    11.225
  20.760	       136	    1200	    11.662
  21.080	       134	    1200	    11.576
  21.400	       141	    1200	    11.874
  21.720	       142	    1200	    11.916
  22.040	       125	    1200	    11.180
  22.360	       123	    1200	    11.091
  22.680	       153	    1200	    12.369
  23.000	       119	    1200	    10.909
  23.320	       123	    1200	    11.091
  23.640	       135	    1200	    11.619
  23.960	       117	    1200	    10.817
  24.280	       117	    1200	    10.817
  24.600	       108	    1200	    10.392
  24.920	       117	    1200	    10.817
  25.240	       127	    1200	    11.269
  25.560	        87	    1200	     9.327
  25.880	       104	    1200	    10.198
  26.200	        83	    1200	     9.110
  26.520	       103	    1200	    10.149
  26.840	        75	    1200	     8.660
  27.160	        89	    1200	     9.434
  27.480	        82	    1200	     9.055
  27.800	        86	    1200	     9.274
  28.120	        95	    1200	     9.747
  28.440	        63	    1200	     7.937
  28.760	        60	    1200	     7.746
  29.080	        66	    1200	     8.124
  29.400	        53	    1200	     7.280
  29.720	        55	    1200	     7.416
  30.040	        55	    1200	     7.416
  30.360	        63	    1200	     7.937
  30.680	        65	    1200	     8.062
  31.000	        59	    1200	     7.681
  31.320	       100	    1200	    10.000
  31.640	       459	    1200	    21.424
  31.960	       381	    1200	    19.519
  32.280	      2310	    1200	    48.062
  32.600	       132	    1200	    11.489
  32.920	        65	    1200	     8.062
  33.240	        50	    1200	     7.071
  33.560	        46	    1200	     6.782
  33.880	        50	    1200	     7.071
  34.200	        30	    1200	     5.477
  34.520	        29	    1200	     5.385
  34.840	        34	    1200	     5.831
  35.160	        36	    1200	     6.000
  35.480	        34	    1200	     5.831
  35.800	        28	    1200	     5.292
  36.120	        33	    1200	     5.745
  36.440	        26	    1200	     5.099
  36.760	        20	    1200	     4.472
  37.080	        23	    1200	     4.796
  37.400	        29	    1200	     5.385
  37.720	        24	    1200	     4.899
  38.040	        20	    1200	     4.472
  38.360	        17	    1200	     4.123
  38.680	        30	    1200	     5.477
  39.000	        29	    1200	     5.385
  39.320	        27	    1200	     5.196
  39.640	       217	    1200	    14.731
  39.960	       166	    1200	    12.884
  40.280	        34	    1200	     5.831
  40.600	        30	    1200	     5.477
  40.920	        38	    1200	     6.164
  41.240	        70	    1200	     8.367
  41.560	        59	    1200	     7.681
  41.880	        44	    1200	     6.633
  42.200	        35	    1200	     5.916
  42.520	        28	    1200	     5.292
  42.840	        19	    1200	     4.359
  43.160	        25	    1200	     5.000
  43.480	        15	    1200	     3.873
  43.800	        35	    1200	     5.916
  44.120	        36	    1200	     6.000
  44.440	       112	    1200	    10.583
  44.760	        66	    1200	     8.124
  45.080	        36	    1200	     6.000
  45.400	        44	    1200	     6.633
  45.720	        72	    1200	     8.485
  46.040	       233	    1200	    15.264
  46.360	       998	    1200	    31.591
  46.680	       105	    1200	    10.247
  47.000	        45	    1200	     6.708
  47.320	        37	    1200	     6.083
  47.640	        19	    1200	     4.359
  47.960	        19	    1200	     4.359
  48.280	        21	    1200	     4.583
  48.600	        22	    1200	     4.690
  48.920	        18	    1200	     4.243
  49.240	        24	    1200	     4.899
  49.560	        14	    1200	     3.742
  49.880	        12	    1200	     3.464
  50.200	        25	    1200	     5.000
  50.520	         8	    1200	     2.828
  50.840	        16	    1200	     4.000
  51.160	        17	    1200	     4.123
  51.480	        22	    1200	     4.690
  51.800	        22	    1200	     4.690
  52.120	        61	    1200	     7.810
  52.440	        42	    1200	     6.481
  52.760	        24	    1200	     4.899
  53.080	        28	    1200	     5.292
  53.400	        12	    1200	     3.464
  53.720	        15	    1200	     3.873
  54.040	        24	    1200	     4.899
  54.360	        25	    1200	     5.000
  54.680	        17	    1200	     4.123
  55.000	        19	    1200	     4.359
  55.320	        23	    1200	     4.796
  55.640	        35	    1200	     5.916
  55.960	        47	    1200	     6.856
  56.280	        60	    1200	     7.746
  56.600	        47	    1200	     6.856
  56.920	        62	    1200	     7.874
  57.240	       245	    1200	    15.652
  57.560	       835	    1200	    28.896
  57.880	       274	    1200	    16.553
  58.200	        49	    1200	     7.000
  58.520	        32	    1200	     5.657
  58.840	        29	    1200	     5.385
  59.160	        32	    1200	     5.657
  59.480	        30	    1200	     5.477
  59.800	        18	    1200	     4.243
  60.120	        22	    1200	     4.690
  60.440	        20	    1200	     4.472
  60.760	        21	    1200	     4.583
  61.080	        26	    1200	     5.099
  61.400	        17	    1200	     4.123
  61.720	        18	    1200	     4.243
  62.040	        13	    1200	     3.606
  62.360	        26	    1200	     5.099
  62.680	        23	    1200	     4.796
  63.000	        25	    1200	     5.000
  63.320	        21	    1200	     4.583
  63.640	        20	    1200	     4.472
  63.960	        24	    1200	     4.899
  64.280	        29	    1200	     5.385
  64.600	        29	    1200	     5.385
  64.920	        27	    1200	     5.196
  65.240	        26	    1200	     5.099
  65.560	        26	    1200	     5.099
  65.880	        28	    1200	     5.292
  66.200	        48	    1200	     6.928
  66.520	        71	    1200	     8.426
  66.840	        40	    1200	     6.325
  67.160	        48	    1200	     6.928
  67.480	       222	    1200	    14.900
  67.800	       387	    1200	    19.672
  68.120	        91	    1200	     9.539
  68.440	        45	    1200	     6.708
  68.760	        27	    1200	     5.196
  69.080	        25	    1200	     5.000
  69.400	        27	    1200	     5.196
  69.720	        12	    1200	     3.464
  70.040	        23	    1200	     4.796
  70.360	        17	    1200	     4.123
  70.680	        14	    1200	     3.742
  71.000	        26	    1200	     5.099
  71.320	        16	    1200	     4.000
  71.640	        21	    1200	     4.583
  71.960	        25	    1200	     5.000
  72.280	        23	    1200	     4.796
  72.600	        27	    1200	     5.196
  72.920	        22	    1200	     4.690
  73.240	        13	    1200	     3.606
  73.560	        25	    1200	     5.000
  73.880	        26	    1200	     5.099
  74.200	        30	    1200	     5.477
  74.520	        28	    1200	     5.292
  74.840	        12	    1200	     3.464
  75.160	        20	    1200	     4.472
  75.480	        21	    1200	     4.583
  75.800	        28	    1200	     5.292
  76.120	        27	    1200	     5.196
  76.440	        46	    1200	     6.782
  76.760	       130	    1200	    11.402
  77.080	       298	    1200	    17.263
  77.400	       107	    1200	    10.344
  77.720	        32	    1200	     5.657
  78.040	        21	    1200	     4.583
  78.360	        23	    1200	     4.796
  78.680	        24	    1200	     4.899
  79.000	        17	    1200	     4.123
  79.320	        20	    1200	     4.472
  79.640	        21	    1200	     4.583
  79.960	        13	    1200	     3.606
  80.280	        19	    1200	     4.359
  80.600	        22	    1200	     4.690
  80.920	        19	    1200	     4.359
  81.240	        39	    1200	     6.245
  81.560	        71	    1200	     8.426
  81.880	        62	    1200	     7.874
  82.200	        49	    1200	     7.000
  82.520	        35	    1200	     5.916
  82.840	        29	    1200	     5.385
  83.160	        26	    1200	     5.099
  83.480	        30	    1200	     5.477
  83.800	        24	    1200	     4.899
  84.120	        20	    1200	     4.472
  84.440	        25	    1200	     5.000
  84.760	        31	    1200	     5.568
  85.080	        23	    1200	     4.796
  85.400	        29	    1200	     5.385
  85.720	        50	    1200	     7.071
  86.040	       121	    1200	    11.000
  86.360	        71	    1200	     8.426
  86.680	        25	    1200	     5.000
  87.000	        26	    1200	     5.099
  87.320	        17	    1200	     4.123
  87.640	        11	    1200	     3.317
  87.960	        16	    1200	     4.000
  88.280	        14	    1200	     3.742
  88.600	        16	    1200	     4.000
  88.920	        29	    1200	     5.385
  89.240	        19	    1200	     4.359
  89.560	        17	    1200	     4.123
  89.880	        21	    1200	     4.583
  90.000	        23	    1200	     4.796