File: Ex Situ XRD/STF6 850C 97H2 4Hr.txt
         ID:

    Comment:

Scan Type: Normal
Start Angle: 15 deg.
Stop Angle: 90 deg.
Num Points: 3751
Step Size: 0.02 deg.
Datafile Res: 1600
Scan Rate: 1.000000
Scan Mode: Continuous
Wavelength: 1.540562

Diffractometer Optics:
		Detector:
			 Type: Fixed Slits
			 X2 Configuration: No
		Tube:
			 Type: Fixed Slits
			 X2 Configuration: No

Axis[0]
	 Selected   : no
	 Iterative  : no
	 Start Angle: 0.000000
	 Stop Angle : 0.000000
	 Step Size  : 0.000000
	 Oscillating: no

Axis[1]
	 Selected   : no
	 Iterative  : no
	 Start Angle: 0.000000
	 Stop Angle : 0.000000
	 Step Size  : 0.000000
	 Oscillating: no

Axis[2]
	 Selected   : no
	 Iterative  : no
	 Start Angle: 0.000000
	 Stop Angle : 0.000000
	 Step Size  : 0.000000
	 Oscillating: no

Axis[3]
	 Selected   : no
	 Iterative  : no
	 Start Angle: 0.000000
	 Stop Angle : 0.000000
	 Step Size  : 0.000000
	 Oscillating: no

Axis[4]
	 Selected   : no
	 Iterative  : no
	 Start Angle: 0.000000
	 Stop Angle : 0.000000
	 Step Size  : 0.000000
	 Oscillating: no

Axis[5]
	 Selected   : no
	 Iterative  : no
	 Start Angle: 0.000000
	 Stop Angle : 0.000000
	 Step Size  : 0.000000
	 Oscillating: no

Axis[6]
	 Selected   : no
	 Iterative  : no
	 Start Angle: 0.000000
	 Stop Angle : 0.000000
	 Step Size  : 0.000000
	 Oscillating: no

Axis[7]
	 Selected   : no
	 Iterative  : no
	 Start Angle: 0.000000
	 Stop Angle : 0.000000
	 Step Size  : 0.000000
	 Oscillating: no

Axis[8]
	 Selected   : no
	 Iterative  : no
	 Start Angle: 0.000000
	 Stop Angle : 0.000000
	 Step Size  : 0.000000
	 Oscillating: no

Axis[9]
	 Selected   : no
	 Iterative  : no
	 Start Angle: 0.000000
	 Stop Angle : 0.000000
	 Step Size  : 0.000000
	 Oscillating: no

	   Deg.    Counts 	   Time 	    ESD

Range 0
  15.000	       116	    1200	    10.770
  15.320	       111	    1200	    10.536
  15.640	       111	    1200	    10.536
  15.960	       120	    1200	    10.954
  16.280	       104	    1200	    10.198
  16.600	        96	    1200	     9.798
  16.920	       115	    1200	    10.724
  17.240	       101	    1200	    10.050
  17.560	       106	    1200	    10.296
  17.880	       123	    1200	    11.091
  18.200	       129	    1200	    11.358
  18.520	       117	    1200	    10.817
  18.840	       108	    1200	    10.392
  19.160	       109	    1200	    10.440
  19.480	       112	    1200	    10.583
  19.800	       115	    1200	    10.724
  20.120	       102	    1200	    10.100
  20.440	        94	    1200	     9.695
  20.760	        99	    1200	     9.950
  21.080	        98	    1200	     9.899
  21.400	       119	    1200	    10.909
  21.720	       102	    1200	    10.100
  22.040	        89	    1200	     9.434
  22.360	        84	    1200	     9.165
  22.680	       136	    1200	    11.662
  23.000	       137	    1200	    11.705
  23.320	       111	    1200	    10.536
  23.640	       113	    1200	    10.630
  23.960	        91	    1200	     9.539
  24.280	       108	    1200	    10.392
  24.600	       117	    1200	    10.817
  24.920	       100	    1200	    10.000
  25.240	       107	    1200	    10.344
  25.560	        96	    1200	     9.798
  25.880	       106	    1200	    10.296
  26.200	       117	    1200	    10.817
  26.520	       102	    1200	    10.100
  26.840	        74	    1200	     8.602
  27.160	        92	    1200	     9.592
  27.480	        75	    1200	     8.660
  27.800	        84	    1200	     9.165
  28.120	        77	    1200	     8.775
  28.440	        68	    1200	     8.246
  28.760	        63	    1200	     7.937
  29.080	        68	    1200	     8.246
  29.400	        58	    1200	     7.616
  29.720	        44	    1200	     6.633
  30.040	        63	    1200	     7.937
  30.360	        73	    1200	     8.544
  30.680	        62	    1200	     7.874
  31.000	        60	    1200	     7.746
  31.320	       114	    1200	    10.677
  31.640	       652	    1200	    25.534
  31.960	       257	    1200	    16.031
  32.280	      1561	    1200	    39.509
  32.600	       158	    1200	    12.570
  32.920	        72	    1200	     8.485
  33.240	        55	    1200	     7.416
  33.560	        38	    1200	     6.164
  33.880	        50	    1200	     7.071
  34.200	        44	    1200	     6.633
  34.520	        41	    1200	     6.403
  34.840	        45	    1200	     6.708
  35.160	        36	    1200	     6.000
  35.480	        41	    1200	     6.403
  35.800	        28	    1200	     5.292
  36.120	        48	    1200	     6.928
  36.440	        34	    1200	     5.831
  36.760	        25	    1200	     5.000
  37.080	        34	    1200	     5.831
  37.400	        32	    1200	     5.657
  37.720	        25	    1200	     5.000
  38.040	        36	    1200	     6.000
  38.360	        36	    1200	     6.000
  38.680	        47	    1200	     6.856
  39.000	        20	    1200	     4.472
  39.320	        34	    1200	     5.831
  39.640	        77	    1200	     8.775
  39.960	       138	    1200	    11.747
  40.280	        43	    1200	     6.557
  40.600	        39	    1200	     6.245
  40.920	        43	    1200	     6.557
  41.240	       111	    1200	    10.536
  41.560	        83	    1200	     9.110
  41.880	        68	    1200	     8.246
  42.200	        49	    1200	     7.000
  42.520	        31	    1200	     5.568
  42.840	        28	    1200	     5.292
  43.160	        33	    1200	     5.745
  43.480	        26	    1200	     5.099
  43.800	        37	    1200	     6.083
  44.120	        50	    1200	     7.071
  44.440	       164	    1200	    12.806
  44.760	       153	    1200	    12.369
  45.080	        62	    1200	     7.874
  45.400	        49	    1200	     7.000
  45.720	        45	    1200	     6.708
  46.040	        96	    1200	     9.798
  46.360	       708	    1200	    26.608
  46.680	       140	    1200	    11.832
  47.000	        43	    1200	     6.557
  47.320	        34	    1200	     5.831
  47.640	        31	    1200	     5.568
  47.960	        26	    1200	     5.099
  48.280	        40	    1200	     6.325
  48.600	        23	    1200	     4.796
  48.920	        28	    1200	     5.292
  49.240	        19	    1200	     4.359
  49.560	        17	    1200	     4.123
  49.880	         8	    1200	     2.828
  50.200	        13	    1200	     3.606
  50.520	        13	    1200	     3.606
  50.840	        21	    1200	     4.583
  51.160	        20	    1200	     4.472
  51.480	        13	    1200	     3.606
  51.800	        22	    1200	     4.690
  52.120	        34	    1200	     5.831
  52.440	        36	    1200	     6.000
  52.760	        19	    1200	     4.359
  53.080	        24	    1200	     4.899
  53.400	        36	    1200	     6.000
  53.720	        23	    1200	     4.796
  54.040	        30	    1200	     5.477
  54.360	        26	    1200	     5.099
  54.680	        19	    1200	     4.359
  55.000	        23	    1200	     4.796
  55.320	        22	    1200	     4.690
  55.640	        42	    1200	     6.481
  55.960	        58	    1200	     7.616
  56.280	        98	    1200	     9.899
  56.600	        52	    1200	     7.211
  56.920	        55	    1200	     7.416
  57.240	       276	    1200	    16.613
  57.560	       512	    1200	    22.627
  57.880	       192	    1200	    13.856
  58.200	        55	    1200	     7.416
  58.520	        38	    1200	     6.164
  58.840	        27	    1200	     5.196
  59.160	        19	    1200	     4.359
  59.480	        26	    1200	     5.099
  59.800	        27	    1200	     5.196
  60.120	        15	    1200	     3.873
  60.440	        19	    1200	     4.359
  60.760	        21	    1200	     4.583
  61.080	        18	    1200	     4.243
  61.400	         8	    1200	     2.828
  61.720	        17	    1200	     4.123
  62.040	        26	    1200	     5.099
  62.360	        10	    1200	     3.162
  62.680	        19	    1200	     4.359
  63.000	        17	    1200	     4.123
  63.320	        13	    1200	     3.606
  63.640	        21	    1200	     4.583
  63.960	        20	    1200	     4.472
  64.280	        20	    1200	     4.472
  64.600	        24	    1200	     4.899
  64.920	        40	    1200	     6.325
  65.240	        27	    1200	     5.196
  65.560	        30	    1200	     5.477
  65.880	        32	    1200	     5.657
  66.200	        57	    1200	     7.550
  66.520	       101	    1200	    10.050
  66.840	        50	    1200	     7.071
  67.160	        42	    1200	     6.481
  67.480	        99	    1200	     9.950
  67.800	       276	    1200	    16.613
  68.120	        90	    1200	     9.487
  68.440	        42	    1200	     6.481
  68.760	        25	    1200	     5.000
  69.080	        27	    1200	     5.196
  69.400	        17	    1200	     4.123
  69.720	        26	    1200	     5.099
  70.040	        17	    1200	     4.123
  70.360	        20	    1200	     4.472
  70.680	        21	    1200	     4.583
  71.000	        20	    1200	     4.472
  71.320	        17	    1200	     4.123
  71.640	        21	    1200	     4.583
  71.960	        13	    1200	     3.606
  72.280	        19	    1200	     4.359
  72.600	        33	    1200	     5.745
  72.920	        20	    1200	     4.472
  73.240	        18	    1200	     4.243
  73.560	        39	    1200	     6.245
  73.880	        35	    1200	     5.916
  74.200	        38	    1200	     6.164
  74.520	        31	    1200	     5.568
  74.840	        29	    1200	     5.385
  75.160	        22	    1200	     4.690
  75.480	        27	    1200	     5.196
  75.800	        18	    1200	     4.243
  76.120	        25	    1200	     5.000
  76.440	        22	    1200	     4.690
  76.760	        92	    1200	     9.592
  77.080	       206	    1200	    14.353
  77.400	       123	    1200	    11.091
  77.720	        39	    1200	     6.245
  78.040	        22	    1200	     4.690
  78.360	        21	    1200	     4.583
  78.680	        13	    1200	     3.606
  79.000	        22	    1200	     4.690
  79.320	        13	    1200	     3.606
  79.640	        15	    1200	     3.873
  79.960	        19	    1200	     4.359
  80.280	        21	    1200	     4.583
  80.600	        18	    1200	     4.243
  80.920	        15	    1200	     3.873
  81.240	        21	    1200	     4.583
  81.560	        53	    1200	     7.280
  81.880	        54	    1200	     7.348
  82.200	        62	    1200	     7.874
  82.520	        59	    1200	     7.681
  82.840	        62	    1200	     7.874
  83.160	        35	    1200	     5.916
  83.480	        36	    1200	     6.000
  83.800	        21	    1200	     4.583
  84.120	        21	    1200	     4.583
  84.440	        16	    1200	     4.000
  84.760	        43	    1200	     6.557
  85.080	        53	    1200	     7.280
  85.400	        30	    1200	     5.477
  85.720	        38	    1200	     6.164
  86.040	        67	    1200	     8.185
  86.360	        56	    1200	     7.483
  86.680	        26	    1200	     5.099
  87.000	        17	    1200	     4.123
  87.320	        23	    1200	     4.796
  87.640	        12	    1200	     3.464
  87.960	        19	    1200	     4.359
  88.280	        10	    1200	     3.162
  88.600	        23	    1200	     4.796
  88.920	        19	    1200	     4.359
  89.240	        15	    1200	     3.873
  89.560	        20	    1200	     4.472
  89.880	        20	    1200	     4.472
  90.000	        21	    1200	     4.583