File: Ex Situ XRD/STF7 Pristine.txt
         ID:

    Comment:

Scan Type: Normal
Start Angle: 15 deg.
Stop Angle: 90 deg.
Num Points: 3751
Step Size: 0.02 deg.
Datafile Res: 1600
Scan Rate: 1.000000
Scan Mode: Continuous
Wavelength: 1.540562

Diffractometer Optics:
		Detector:
			 Type: Fixed Slits
			 X2 Configuration: No
		Tube:
			 Type: Fixed Slits
			 X2 Configuration: No

Axis[0]
	 Selected   : no
	 Iterative  : no
	 Start Angle: 0.000000
	 Stop Angle : 0.000000
	 Step Size  : 0.000000
	 Oscillating: no

Axis[1]
	 Selected   : no
	 Iterative  : no
	 Start Angle: 0.000000
	 Stop Angle : 0.000000
	 Step Size  : 0.000000
	 Oscillating: no

Axis[2]
	 Selected   : no
	 Iterative  : no
	 Start Angle: 0.000000
	 Stop Angle : 0.000000
	 Step Size  : 0.000000
	 Oscillating: no

Axis[3]
	 Selected   : no
	 Iterative  : no
	 Start Angle: 0.000000
	 Stop Angle : 0.000000
	 Step Size  : 0.000000
	 Oscillating: no

Axis[4]
	 Selected   : no
	 Iterative  : no
	 Start Angle: 0.000000
	 Stop Angle : 0.000000
	 Step Size  : 0.000000
	 Oscillating: no

Axis[5]
	 Selected   : no
	 Iterative  : no
	 Start Angle: 0.000000
	 Stop Angle : 0.000000
	 Step Size  : 0.000000
	 Oscillating: no

Axis[6]
	 Selected   : no
	 Iterative  : no
	 Start Angle: 0.000000
	 Stop Angle : 0.000000
	 Step Size  : 0.000000
	 Oscillating: no

Axis[7]
	 Selected   : no
	 Iterative  : no
	 Start Angle: 0.000000
	 Stop Angle : 0.000000
	 Step Size  : 0.000000
	 Oscillating: no

Axis[8]
	 Selected   : no
	 Iterative  : no
	 Start Angle: 0.000000
	 Stop Angle : 0.000000
	 Step Size  : 0.000000
	 Oscillating: no

Axis[9]
	 Selected   : no
	 Iterative  : no
	 Start Angle: 0.000000
	 Stop Angle : 0.000000
	 Step Size  : 0.000000
	 Oscillating: no

	   Deg.    Counts 	   Time 	    ESD

Range 0
  15.000	       122	    1200	    11.045
  15.320	       126	    1200	    11.225
  15.640	       148	    1200	    12.166
  15.960	       124	    1200	    11.136
  16.280	       101	    1200	    10.050
  16.600	       126	    1200	    11.225
  16.920	       137	    1200	    11.705
  17.240	       114	    1200	    10.677
  17.560	       113	    1200	    10.630
  17.880	       132	    1200	    11.489
  18.200	       141	    1200	    11.874
  18.520	       121	    1200	    11.000
  18.840	       122	    1200	    11.045
  19.160	       135	    1200	    11.619
  19.480	       139	    1200	    11.790
  19.800	       128	    1200	    11.314
  20.120	       158	    1200	    12.570
  20.440	       147	    1200	    12.124
  20.760	       140	    1200	    11.832
  21.080	       125	    1200	    11.180
  21.400	       135	    1200	    11.619
  21.720	       139	    1200	    11.790
  22.040	       143	    1200	    11.958
  22.360	       119	    1200	    10.909
  22.680	       212	    1200	    14.560
  23.000	       152	    1200	    12.329
  23.320	       124	    1200	    11.136
  23.640	       136	    1200	    11.662
  23.960	       138	    1200	    11.747
  24.280	       115	    1200	    10.724
  24.600	       110	    1200	    10.488
  24.920	        98	    1200	     9.899
  25.240	       100	    1200	    10.000
  25.560	       113	    1200	    10.630
  25.880	       133	    1200	    11.533
  26.200	        98	    1200	     9.899
  26.520	       106	    1200	    10.296
  26.840	        88	    1200	     9.381
  27.160	        73	    1200	     8.544
  27.480	        75	    1200	     8.660
  27.800	        88	    1200	     9.381
  28.120	        80	    1200	     8.944
  28.440	        66	    1200	     8.124
  28.760	        73	    1200	     8.544
  29.080	        79	    1200	     8.888
  29.400	        66	    1200	     8.124
  29.720	        73	    1200	     8.544
  30.040	        67	    1200	     8.185
  30.360	        76	    1200	     8.718
  30.680	        68	    1200	     8.246
  31.000	        52	    1200	     7.211
  31.320	        67	    1200	     8.185
  31.640	       100	    1200	    10.000
  31.960	       154	    1200	    12.410
  32.280	      1710	    1200	    41.352
  32.600	      1027	    1200	    32.047
  32.920	       125	    1200	    11.180
  33.240	        80	    1200	     8.944
  33.560	        57	    1200	     7.550
  33.880	        53	    1200	     7.280
  34.200	        59	    1200	     7.681
  34.520	        52	    1200	     7.211
  34.840	        37	    1200	     6.083
  35.160	        39	    1200	     6.245
  35.480	        34	    1200	     5.831
  35.800	        35	    1200	     5.916
  36.120	        44	    1200	     6.633
  36.440	        34	    1200	     5.831
  36.760	        28	    1200	     5.292
  37.080	        33	    1200	     5.745
  37.400	        25	    1200	     5.000
  37.720	        30	    1200	     5.477
  38.040	        25	    1200	     5.000
  38.360	        34	    1200	     5.831
  38.680	        31	    1200	     5.568
  39.000	        40	    1200	     6.325
  39.320	        44	    1200	     6.633
  39.640	        52	    1200	     7.211
  39.960	       577	    1200	    24.021
  40.280	       121	    1200	    11.000
  40.600	        43	    1200	     6.557
  40.920	        30	    1200	     5.477
  41.240	        26	    1200	     5.099
  41.560	        31	    1200	     5.568
  41.880	        37	    1200	     6.083
  42.200	        22	    1200	     4.690
  42.520	        25	    1200	     5.000
  42.840	        32	    1200	     5.657
  43.160	        29	    1200	     5.385
  43.480	        31	    1200	     5.568
  43.800	        31	    1200	     5.568
  44.120	        35	    1200	     5.916
  44.440	        28	    1200	     5.292
  44.760	        40	    1200	     6.325
  45.080	        35	    1200	     5.916
  45.400	        34	    1200	     5.831
  45.720	        39	    1200	     6.245
  46.040	        75	    1200	     8.660
  46.360	       330	    1200	    18.166
  46.680	      1138	    1200	    33.734
  47.000	       131	    1200	    11.446
  47.320	        49	    1200	     7.000
  47.640	        38	    1200	     6.164
  47.960	        30	    1200	     5.477
  48.280	        25	    1200	     5.000
  48.600	        33	    1200	     5.745
  48.920	        31	    1200	     5.568
  49.240	        29	    1200	     5.385
  49.560	        26	    1200	     5.099
  49.880	        22	    1200	     4.690
  50.200	        21	    1200	     4.583
  50.520	        21	    1200	     4.583
  50.840	        26	    1200	     5.099
  51.160	        25	    1200	     5.000
  51.480	        22	    1200	     4.690
  51.800	        21	    1200	     4.583
  52.120	        25	    1200	     5.000
  52.440	        60	    1200	     7.746
  52.760	        36	    1200	     6.000
  53.080	        20	    1200	     4.472
  53.400	        18	    1200	     4.243
  53.720	        14	    1200	     3.742
  54.040	        32	    1200	     5.657
  54.360	        18	    1200	     4.243
  54.680	        28	    1200	     5.292
  55.000	        26	    1200	     5.099
  55.320	        24	    1200	     4.899
  55.640	        26	    1200	     5.099
  55.960	        38	    1200	     6.164
  56.280	        34	    1200	     5.831
  56.600	        36	    1200	     6.000
  56.920	        40	    1200	     6.325
  57.240	        21	    1200	     4.583
  57.560	       130	    1200	    11.402
  57.880	       827	    1200	    28.758
  58.200	       725	    1200	    26.926
  58.520	        97	    1200	     9.849
  58.840	        39	    1200	     6.245
  59.160	        52	    1200	     7.211
  59.480	        41	    1200	     6.403
  59.800	        45	    1200	     6.708
  60.120	        28	    1200	     5.292
  60.440	        28	    1200	     5.292
  60.760	        27	    1200	     5.196
  61.080	        20	    1200	     4.472
  61.400	        23	    1200	     4.796
  61.720	        30	    1200	     5.477
  62.040	        27	    1200	     5.196
  62.360	        17	    1200	     4.123
  62.680	        26	    1200	     5.099
  63.000	        27	    1200	     5.196
  63.320	        22	    1200	     4.690
  63.640	        28	    1200	     5.292
  63.960	        20	    1200	     4.472
  64.280	        22	    1200	     4.690
  64.600	        23	    1200	     4.796
  64.920	        30	    1200	     5.477
  65.240	        31	    1200	     5.568
  65.560	        24	    1200	     4.899
  65.880	        28	    1200	     5.292
  66.200	        23	    1200	     4.796
  66.520	        26	    1200	     5.099
  66.840	        35	    1200	     5.916
  67.160	        25	    1200	     5.000
  67.480	        57	    1200	     7.550
  67.800	       137	    1200	    11.705
  68.120	       599	    1200	    24.474
  68.440	       210	    1200	    14.491
  68.760	        50	    1200	     7.071
  69.080	        39	    1200	     6.245
  69.400	        33	    1200	     5.745
  69.720	        19	    1200	     4.359
  70.040	        24	    1200	     4.899
  70.360	        25	    1200	     5.000
  70.680	        26	    1200	     5.099
  71.000	        25	    1200	     5.000
  71.320	        28	    1200	     5.292
  71.640	        28	    1200	     5.292
  71.960	        25	    1200	     5.000
  72.280	        24	    1200	     4.899
  72.600	        23	    1200	     4.796
  72.920	        51	    1200	     7.141
  73.240	        31	    1200	     5.568
  73.560	        22	    1200	     4.690
  73.880	        21	    1200	     4.583
  74.200	        15	    1200	     3.873
  74.520	        22	    1200	     4.690
  74.840	        24	    1200	     4.899
  75.160	        26	    1200	     5.099
  75.480	        21	    1200	     4.583
  75.800	        24	    1200	     4.899
  76.120	        30	    1200	     5.477
  76.440	        23	    1200	     4.796
  76.760	        34	    1200	     5.831
  77.080	        70	    1200	     8.367
  77.400	       238	    1200	    15.427
  77.720	       343	    1200	    18.520
  78.040	        94	    1200	     9.695
  78.360	        35	    1200	     5.916
  78.680	        22	    1200	     4.690
  79.000	        22	    1200	     4.690
  79.320	        19	    1200	     4.359
  79.640	        22	    1200	     4.690
  79.960	        16	    1200	     4.000
  80.280	        16	    1200	     4.000
  80.600	        19	    1200	     4.359
  80.920	        19	    1200	     4.359
  81.240	        26	    1200	     5.099
  81.560	        30	    1200	     5.477
  81.880	        41	    1200	     6.403
  82.200	       107	    1200	    10.344
  82.520	        50	    1200	     7.071
  82.840	        35	    1200	     5.916
  83.160	        24	    1200	     4.899
  83.480	        25	    1200	     5.000
  83.800	        18	    1200	     4.243
  84.120	        18	    1200	     4.243
  84.440	        21	    1200	     4.583
  84.760	        20	    1200	     4.472
  85.080	        10	    1200	     3.162
  85.400	        21	    1200	     4.583
  85.720	        26	    1200	     5.099
  86.040	        46	    1200	     6.782
  86.360	        57	    1200	     7.550
  86.680	       171	    1200	    13.077
  87.000	       105	    1200	    10.247
  87.320	        30	    1200	     5.477
  87.640	        18	    1200	     4.243
  87.960	        18	    1200	     4.243
  88.280	        31	    1200	     5.568
  88.600	        19	    1200	     4.359
  88.920	        20	    1200	     4.472
  89.240	        20	    1200	     4.472
  89.560	        21	    1200	     4.583
  89.880	        17	    1200	     4.123
  90.000	        28	    1200	     5.292