File: Ex Situ XRD/STF7 850C 97H2 4Hr.txt
         ID:

    Comment:

Scan Type: Normal
Start Angle: 15 deg.
Stop Angle: 90 deg.
Num Points: 3751
Step Size: 0.02 deg.
Datafile Res: 1600
Scan Rate: 1.000000
Scan Mode: Continuous
Wavelength: 1.540562

Diffractometer Optics:
		Detector:
			 Type: Fixed Slits
			 X2 Configuration: No
		Tube:
			 Type: Fixed Slits
			 X2 Configuration: No

Axis[0]
	 Selected   : no
	 Iterative  : no
	 Start Angle: 0.000000
	 Stop Angle : 0.000000
	 Step Size  : 0.000000
	 Oscillating: no

Axis[1]
	 Selected   : no
	 Iterative  : no
	 Start Angle: 0.000000
	 Stop Angle : 0.000000
	 Step Size  : 0.000000
	 Oscillating: no

Axis[2]
	 Selected   : no
	 Iterative  : no
	 Start Angle: 0.000000
	 Stop Angle : 0.000000
	 Step Size  : 0.000000
	 Oscillating: no

Axis[3]
	 Selected   : no
	 Iterative  : no
	 Start Angle: 0.000000
	 Stop Angle : 0.000000
	 Step Size  : 0.000000
	 Oscillating: no

Axis[4]
	 Selected   : no
	 Iterative  : no
	 Start Angle: 0.000000
	 Stop Angle : 0.000000
	 Step Size  : 0.000000
	 Oscillating: no

Axis[5]
	 Selected   : no
	 Iterative  : no
	 Start Angle: 0.000000
	 Stop Angle : 0.000000
	 Step Size  : 0.000000
	 Oscillating: no

Axis[6]
	 Selected   : no
	 Iterative  : no
	 Start Angle: 0.000000
	 Stop Angle : 0.000000
	 Step Size  : 0.000000
	 Oscillating: no

Axis[7]
	 Selected   : no
	 Iterative  : no
	 Start Angle: 0.000000
	 Stop Angle : 0.000000
	 Step Size  : 0.000000
	 Oscillating: no

Axis[8]
	 Selected   : no
	 Iterative  : no
	 Start Angle: 0.000000
	 Stop Angle : 0.000000
	 Step Size  : 0.000000
	 Oscillating: no

Axis[9]
	 Selected   : no
	 Iterative  : no
	 Start Angle: 0.000000
	 Stop Angle : 0.000000
	 Step Size  : 0.000000
	 Oscillating: no

	   Deg.    Counts 	   Time 	    ESD

Range 0
  15.000	        97	    1200	     9.849
  15.320	       100	    1200	    10.000
  15.640	       112	    1200	    10.583
  15.960	       105	    1200	    10.247
  16.280	       109	    1200	    10.440
  16.600	       113	    1200	    10.630
  16.920	        92	    1200	     9.592
  17.240	        93	    1200	     9.644
  17.560	        84	    1200	     9.165
  17.880	        96	    1200	     9.798
  18.200	        91	    1200	     9.539
  18.520	        92	    1200	     9.592
  18.840	       102	    1200	    10.100
  19.160	       101	    1200	    10.050
  19.480	        85	    1200	     9.220
  19.800	        93	    1200	     9.644
  20.120	       102	    1200	    10.100
  20.440	       125	    1200	    11.180
  20.760	       112	    1200	    10.583
  21.080	       108	    1200	    10.392
  21.400	       121	    1200	    11.000
  21.720	       106	    1200	    10.296
  22.040	       100	    1200	    10.000
  22.360	       103	    1200	    10.149
  22.680	       131	    1200	    11.446
  23.000	       117	    1200	    10.817
  23.320	       108	    1200	    10.392
  23.640	       102	    1200	    10.100
  23.960	       101	    1200	    10.050
  24.280	       100	    1200	    10.000
  24.600	       116	    1200	    10.770
  24.920	        87	    1200	     9.327
  25.240	        83	    1200	     9.110
  25.560	        89	    1200	     9.434
  25.880	        84	    1200	     9.165
  26.200	        91	    1200	     9.539
  26.520	        67	    1200	     8.185
  26.840	        76	    1200	     8.718
  27.160	        75	    1200	     8.660
  27.480	        65	    1200	     8.062
  27.800	        79	    1200	     8.888
  28.120	        56	    1200	     7.483
  28.440	        48	    1200	     6.928
  28.760	        64	    1200	     8.000
  29.080	        67	    1200	     8.185
  29.400	        73	    1200	     8.544
  29.720	        61	    1200	     7.810
  30.040	        78	    1200	     8.832
  30.360	        59	    1200	     7.681
  30.680	        70	    1200	     8.367
  31.000	        69	    1200	     8.307
  31.320	        93	    1200	     9.644
  31.640	       419	    1200	    20.469
  31.960	       229	    1200	    15.133
  32.280	      1234	    1200	    35.128
  32.600	       209	    1200	    14.457
  32.920	        60	    1200	     7.746
  33.240	        59	    1200	     7.681
  33.560	        70	    1200	     8.367
  33.880	        50	    1200	     7.071
  34.200	        34	    1200	     5.831
  34.520	        39	    1200	     6.245
  34.840	        32	    1200	     5.657
  35.160	        26	    1200	     5.099
  35.480	        30	    1200	     5.477
  35.800	        31	    1200	     5.568
  36.120	        45	    1200	     6.708
  36.440	        34	    1200	     5.831
  36.760	        34	    1200	     5.831
  37.080	        23	    1200	     4.796
  37.400	        19	    1200	     4.359
  37.720	        39	    1200	     6.245
  38.040	        29	    1200	     5.385
  38.360	        31	    1200	     5.568
  38.680	        34	    1200	     5.831
  39.000	        36	    1200	     6.000
  39.320	        39	    1200	     6.245
  39.640	        68	    1200	     8.246
  39.960	        88	    1200	     9.381
  40.280	        36	    1200	     6.000
  40.600	        26	    1200	     5.099
  40.920	        34	    1200	     5.831
  41.240	       105	    1200	    10.247
  41.560	        66	    1200	     8.124
  41.880	        54	    1200	     7.348
  42.200	        25	    1200	     5.000
  42.520	        28	    1200	     5.292
  42.840	        23	    1200	     4.796
  43.160	        23	    1200	     4.796
  43.480	        25	    1200	     5.000
  43.800	        31	    1200	     5.568
  44.120	        38	    1200	     6.164
  44.440	       122	    1200	    11.045
  44.760	       124	    1200	    11.136
  45.080	        43	    1200	     6.557
  45.400	        44	    1200	     6.633
  45.720	        60	    1200	     7.746
  46.040	        97	    1200	     9.849
  46.360	       486	    1200	    22.045
  46.680	       166	    1200	    12.884
  47.000	        45	    1200	     6.708
  47.320	        26	    1200	     5.099
  47.640	        21	    1200	     4.583
  47.960	        21	    1200	     4.583
  48.280	        21	    1200	     4.583
  48.600	        17	    1200	     4.123
  48.920	        16	    1200	     4.000
  49.240	         9	    1200	     3.000
  49.560	         9	    1200	     3.000
  49.880	        20	    1200	     4.472
  50.200	        17	    1200	     4.123
  50.520	        10	    1200	     3.162
  50.840	        13	    1200	     3.606
  51.160	        26	    1200	     5.099
  51.480	        17	    1200	     4.123
  51.800	        17	    1200	     4.123
  52.120	        19	    1200	     4.359
  52.440	        33	    1200	     5.745
  52.760	        13	    1200	     3.606
  53.080	        27	    1200	     5.196
  53.400	        32	    1200	     5.657
  53.720	        28	    1200	     5.292
  54.040	        23	    1200	     4.796
  54.360	        22	    1200	     4.690
  54.680	        21	    1200	     4.583
  55.000	        22	    1200	     4.690
  55.320	        20	    1200	     4.472
  55.640	        38	    1200	     6.164
  55.960	        49	    1200	     7.000
  56.280	        69	    1200	     8.307
  56.600	        48	    1200	     6.928
  56.920	        51	    1200	     7.141
  57.240	       182	    1200	    13.491
  57.560	       389	    1200	    19.723
  57.880	       217	    1200	    14.731
  58.200	        76	    1200	     8.718
  58.520	        40	    1200	     6.325
  58.840	        20	    1200	     4.472
  59.160	        26	    1200	     5.099
  59.480	        28	    1200	     5.292
  59.800	        19	    1200	     4.359
  60.120	        20	    1200	     4.472
  60.440	        19	    1200	     4.359
  60.760	        12	    1200	     3.464
  61.080	        18	    1200	     4.243
  61.400	        18	    1200	     4.243
  61.720	        24	    1200	     4.899
  62.040	        16	    1200	     4.000
  62.360	        19	    1200	     4.359
  62.680	        13	    1200	     3.606
  63.000	        18	    1200	     4.243
  63.320	        15	    1200	     3.873
  63.640	        23	    1200	     4.796
  63.960	        22	    1200	     4.690
  64.280	        24	    1200	     4.899
  64.600	        19	    1200	     4.359
  64.920	        40	    1200	     6.325
  65.240	        25	    1200	     5.000
  65.560	        19	    1200	     4.359
  65.880	        32	    1200	     5.657
  66.200	        46	    1200	     6.782
  66.520	        81	    1200	     9.000
  66.840	        49	    1200	     7.000
  67.160	        43	    1200	     6.557
  67.480	       108	    1200	    10.392
  67.800	       213	    1200	    14.595
  68.120	       105	    1200	    10.247
  68.440	        27	    1200	     5.196
  68.760	        24	    1200	     4.899
  69.080	        19	    1200	     4.359
  69.400	        19	    1200	     4.359
  69.720	        28	    1200	     5.292
  70.040	        18	    1200	     4.243
  70.360	        18	    1200	     4.243
  70.680	        17	    1200	     4.123
  71.000	        18	    1200	     4.243
  71.320	        13	    1200	     3.606
  71.640	        17	    1200	     4.123
  71.960	         8	    1200	     2.828
  72.280	        15	    1200	     3.873
  72.600	        16	    1200	     4.000
  72.920	        21	    1200	     4.583
  73.240	        29	    1200	     5.385
  73.560	        27	    1200	     5.196
  73.880	        28	    1200	     5.292
  74.200	        24	    1200	     4.899
  74.520	        28	    1200	     5.292
  74.840	        24	    1200	     4.899
  75.160	        16	    1200	     4.000
  75.480	        18	    1200	     4.243
  75.800	        22	    1200	     4.690
  76.120	        24	    1200	     4.899
  76.440	        34	    1200	     5.831
  76.760	        80	    1200	     8.944
  77.080	       154	    1200	    12.410
  77.400	       134	    1200	    11.576
  77.720	        47	    1200	     6.856
  78.040	        47	    1200	     6.856
  78.360	        25	    1200	     5.000
  78.680	        16	    1200	     4.000
  79.000	        19	    1200	     4.359
  79.320	        26	    1200	     5.099
  79.640	        14	    1200	     3.742
  79.960	        19	    1200	     4.359
  80.280	        22	    1200	     4.690
  80.600	        15	    1200	     3.873
  80.920	        21	    1200	     4.583
  81.240	        27	    1200	     5.196
  81.560	        51	    1200	     7.141
  81.880	        41	    1200	     6.403
  82.200	        54	    1200	     7.348
  82.520	        50	    1200	     7.071
  82.840	        52	    1200	     7.211
  83.160	        34	    1200	     5.831
  83.480	        18	    1200	     4.243
  83.800	        19	    1200	     4.359
  84.120	        17	    1200	     4.123
  84.440	        27	    1200	     5.196
  84.760	        34	    1200	     5.831
  85.080	        28	    1200	     5.292
  85.400	        29	    1200	     5.385
  85.720	        39	    1200	     6.245
  86.040	        47	    1200	     6.856
  86.360	        45	    1200	     6.708
  86.680	        30	    1200	     5.477
  87.000	        18	    1200	     4.243
  87.320	        17	    1200	     4.123
  87.640	        18	    1200	     4.243
  87.960	        12	    1200	     3.464
  88.280	        17	    1200	     4.123
  88.600	        14	    1200	     3.742
  88.920	        19	    1200	     4.359
  89.240	        15	    1200	     3.873
  89.560	        21	    1200	     4.583
  89.880	        13	    1200	     3.606
  90.000	        17	    1200	     4.123