File: Ex Situ XRD/STF8 Pristine.txt
         ID:

    Comment:

Scan Type: Normal
Start Angle: 15 deg.
Stop Angle: 90 deg.
Num Points: 3751
Step Size: 0.02 deg.
Datafile Res: 1600
Scan Rate: 1.000000
Scan Mode: Continuous
Wavelength: 1.540562

Diffractometer Optics:
		Detector:
			 Type: Fixed Slits
			 X2 Configuration: No
		Tube:
			 Type: Fixed Slits
			 X2 Configuration: No

Axis[0]
	 Selected   : no
	 Iterative  : no
	 Start Angle: 0.000000
	 Stop Angle : 0.000000
	 Step Size  : 0.000000
	 Oscillating: no

Axis[1]
	 Selected   : no
	 Iterative  : no
	 Start Angle: 0.000000
	 Stop Angle : 0.000000
	 Step Size  : 0.000000
	 Oscillating: no

Axis[2]
	 Selected   : no
	 Iterative  : no
	 Start Angle: 0.000000
	 Stop Angle : 0.000000
	 Step Size  : 0.000000
	 Oscillating: no

Axis[3]
	 Selected   : no
	 Iterative  : no
	 Start Angle: 0.000000
	 Stop Angle : 0.000000
	 Step Size  : 0.000000
	 Oscillating: no

Axis[4]
	 Selected   : no
	 Iterative  : no
	 Start Angle: 0.000000
	 Stop Angle : 0.000000
	 Step Size  : 0.000000
	 Oscillating: no

Axis[5]
	 Selected   : no
	 Iterative  : no
	 Start Angle: 0.000000
	 Stop Angle : 0.000000
	 Step Size  : 0.000000
	 Oscillating: no

Axis[6]
	 Selected   : no
	 Iterative  : no
	 Start Angle: 0.000000
	 Stop Angle : 0.000000
	 Step Size  : 0.000000
	 Oscillating: no

Axis[7]
	 Selected   : no
	 Iterative  : no
	 Start Angle: 0.000000
	 Stop Angle : 0.000000
	 Step Size  : 0.000000
	 Oscillating: no

Axis[8]
	 Selected   : no
	 Iterative  : no
	 Start Angle: 0.000000
	 Stop Angle : 0.000000
	 Step Size  : 0.000000
	 Oscillating: no

Axis[9]
	 Selected   : no
	 Iterative  : no
	 Start Angle: 0.000000
	 Stop Angle : 0.000000
	 Step Size  : 0.000000
	 Oscillating: no

	   Deg.    Counts 	   Time 	    ESD

Range 0
  15.000	        96	    1200	     9.798
  15.320	       109	    1200	    10.440
  15.640	       104	    1200	    10.198
  15.960	       110	    1200	    10.488
  16.280	        92	    1200	     9.592
  16.600	       119	    1200	    10.909
  16.920	        96	    1200	     9.798
  17.240	        99	    1200	     9.950
  17.560	       104	    1200	    10.198
  17.880	       100	    1200	    10.000
  18.200	        95	    1200	     9.747
  18.520	       113	    1200	    10.630
  18.840	       104	    1200	    10.198
  19.160	        93	    1200	     9.644
  19.480	       109	    1200	    10.440
  19.800	        97	    1200	     9.849
  20.120	       105	    1200	    10.247
  20.440	       106	    1200	    10.296
  20.760	        96	    1200	     9.798
  21.080	       120	    1200	    10.954
  21.400	       114	    1200	    10.677
  21.720	       105	    1200	    10.247
  22.040	        97	    1200	     9.849
  22.360	        91	    1200	     9.539
  22.680	       130	    1200	    11.402
  23.000	        83	    1200	     9.110
  23.320	        99	    1200	     9.950
  23.640	        81	    1200	     9.000
  23.960	       101	    1200	    10.050
  24.280	        89	    1200	     9.434
  24.600	       105	    1200	    10.247
  24.920	        89	    1200	     9.434
  25.240	        78	    1200	     8.832
  25.560	        79	    1200	     8.888
  25.880	        85	    1200	     9.220
  26.200	        83	    1200	     9.110
  26.520	       103	    1200	    10.149
  26.840	        63	    1200	     7.937
  27.160	        72	    1200	     8.485
  27.480	        72	    1200	     8.485
  27.800	        72	    1200	     8.485
  28.120	        54	    1200	     7.348
  28.440	        55	    1200	     7.416
  28.760	        85	    1200	     9.220
  29.080	        58	    1200	     7.616
  29.400	        70	    1200	     8.367
  29.720	        63	    1200	     7.937
  30.040	        73	    1200	     8.544
  30.360	        54	    1200	     7.348
  30.680	        55	    1200	     7.416
  31.000	        57	    1200	     7.550
  31.320	        73	    1200	     8.544
  31.640	        53	    1200	     7.280
  31.960	       105	    1200	    10.247
  32.280	       650	    1200	    25.495
  32.600	      1734	    1200	    41.641
  32.920	       102	    1200	    10.100
  33.240	        47	    1200	     6.856
  33.560	        56	    1200	     7.483
  33.880	        41	    1200	     6.403
  34.200	        50	    1200	     7.071
  34.520	        44	    1200	     6.633
  34.840	        37	    1200	     6.083
  35.160	        36	    1200	     6.000
  35.480	        34	    1200	     5.831
  35.800	        30	    1200	     5.477
  36.120	        34	    1200	     5.831
  36.440	        31	    1200	     5.568
  36.760	        30	    1200	     5.477
  37.080	        24	    1200	     4.899
  37.400	        18	    1200	     4.243
  37.720	        33	    1200	     5.745
  38.040	        38	    1200	     6.164
  38.360	        31	    1200	     5.568
  38.680	        21	    1200	     4.583
  39.000	        27	    1200	     5.196
  39.320	        48	    1200	     6.928
  39.640	        51	    1200	     7.141
  39.960	       189	    1200	    13.748
  40.280	       215	    1200	    14.663
  40.600	        42	    1200	     6.481
  40.920	        44	    1200	     6.633
  41.240	        29	    1200	     5.385
  41.560	        34	    1200	     5.831
  41.880	        39	    1200	     6.245
  42.200	        26	    1200	     5.099
  42.520	        29	    1200	     5.385
  42.840	        29	    1200	     5.385
  43.160	        22	    1200	     4.690
  43.480	        31	    1200	     5.568
  43.800	        28	    1200	     5.292
  44.120	        36	    1200	     6.000
  44.440	        30	    1200	     5.477
  44.760	        37	    1200	     6.083
  45.080	        29	    1200	     5.385
  45.400	        30	    1200	     5.477
  45.720	        28	    1200	     5.292
  46.040	        47	    1200	     6.856
  46.360	       162	    1200	    12.728
  46.680	       993	    1200	    31.512
  47.000	       234	    1200	    15.297
  47.320	        43	    1200	     6.557
  47.640	        39	    1200	     6.245
  47.960	        28	    1200	     5.292
  48.280	        21	    1200	     4.583
  48.600	        25	    1200	     5.000
  48.920	        28	    1200	     5.292
  49.240	        29	    1200	     5.385
  49.560	        28	    1200	     5.292
  49.880	        28	    1200	     5.292
  50.200	        33	    1200	     5.745
  50.520	        26	    1200	     5.099
  50.840	        27	    1200	     5.196
  51.160	        23	    1200	     4.796
  51.480	        21	    1200	     4.583
  51.800	        22	    1200	     4.690
  52.120	        28	    1200	     5.292
  52.440	        32	    1200	     5.657
  52.760	        55	    1200	     7.416
  53.080	        23	    1200	     4.796
  53.400	        21	    1200	     4.583
  53.720	        23	    1200	     4.796
  54.040	        30	    1200	     5.477
  54.360	        21	    1200	     4.583
  54.680	        22	    1200	     4.690
  55.000	        21	    1200	     4.583
  55.320	        23	    1200	     4.796
  55.640	        27	    1200	     5.196
  55.960	        29	    1200	     5.385
  56.280	        35	    1200	     5.916
  56.600	        24	    1200	     4.899
  56.920	        41	    1200	     6.403
  57.240	        32	    1200	     5.657
  57.560	       118	    1200	    10.863
  57.880	       255	    1200	    15.969
  58.200	       878	    1200	    29.631
  58.520	       180	    1200	    13.416
  58.840	        44	    1200	     6.633
  59.160	        38	    1200	     6.164
  59.480	        22	    1200	     4.690
  59.800	        22	    1200	     4.690
  60.120	        28	    1200	     5.292
  60.440	        24	    1200	     4.899
  60.760	        35	    1200	     5.916
  61.080	        30	    1200	     5.477
  61.400	        22	    1200	     4.690
  61.720	        27	    1200	     5.196
  62.040	        23	    1200	     4.796
  62.360	        25	    1200	     5.000
  62.680	        32	    1200	     5.657
  63.000	        32	    1200	     5.657
  63.320	        23	    1200	     4.796
  63.640	        22	    1200	     4.690
  63.960	        23	    1200	     4.796
  64.280	        30	    1200	     5.477
  64.600	        34	    1200	     5.831
  64.920	        26	    1200	     5.099
  65.240	        35	    1200	     5.916
  65.560	        21	    1200	     4.583
  65.880	        29	    1200	     5.385
  66.200	        28	    1200	     5.292
  66.520	        30	    1200	     5.477
  66.840	        35	    1200	     5.916
  67.160	        24	    1200	     4.899
  67.480	        43	    1200	     6.557
  67.800	        70	    1200	     8.367
  68.120	       216	    1200	    14.697
  68.440	       344	    1200	    18.547
  68.760	        96	    1200	     9.798
  69.080	        32	    1200	     5.657
  69.400	        28	    1200	     5.292
  69.720	        25	    1200	     5.000
  70.040	        23	    1200	     4.796
  70.360	        27	    1200	     5.196
  70.680	        18	    1200	     4.243
  71.000	        32	    1200	     5.657
  71.320	        18	    1200	     4.243
  71.640	        31	    1200	     5.568
  71.960	        18	    1200	     4.243
  72.280	        22	    1200	     4.690
  72.600	        27	    1200	     5.196
  72.920	        33	    1200	     5.745
  73.240	        35	    1200	     5.916
  73.560	        34	    1200	     5.831
  73.880	        19	    1200	     4.359
  74.200	        24	    1200	     4.899
  74.520	        18	    1200	     4.243
  74.840	        20	    1200	     4.472
  75.160	        21	    1200	     4.583
  75.480	        21	    1200	     4.583
  75.800	        35	    1200	     5.916
  76.120	        22	    1200	     4.690
  76.440	        28	    1200	     5.292
  76.760	        29	    1200	     5.385
  77.080	        63	    1200	     7.937
  77.400	        85	    1200	     9.220
  77.720	       264	    1200	    16.248
  78.040	       179	    1200	    13.379
  78.360	        53	    1200	     7.280
  78.680	        35	    1200	     5.916
  79.000	        21	    1200	     4.583
  79.320	        31	    1200	     5.568
  79.640	        38	    1200	     6.164
  79.960	        23	    1200	     4.796
  80.280	        30	    1200	     5.477
  80.600	        20	    1200	     4.472
  80.920	        21	    1200	     4.583
  81.240	        25	    1200	     5.000
  81.560	        20	    1200	     4.472
  81.880	        29	    1200	     5.385
  82.200	        43	    1200	     6.557
  82.520	        69	    1200	     8.307
  82.840	        37	    1200	     6.083
  83.160	        30	    1200	     5.477
  83.480	        17	    1200	     4.123
  83.800	        22	    1200	     4.690
  84.120	        24	    1200	     4.899
  84.440	        17	    1200	     4.123
  84.760	        27	    1200	     5.196
  85.080	        17	    1200	     4.123
  85.400	        25	    1200	     5.000
  85.720	        24	    1200	     4.899
  86.040	        34	    1200	     5.831
  86.360	        35	    1200	     5.916
  86.680	        63	    1200	     7.937
  87.000	       111	    1200	    10.536
  87.320	        67	    1200	     8.185
  87.640	        28	    1200	     5.292
  87.960	        15	    1200	     3.873
  88.280	        17	    1200	     4.123
  88.600	        29	    1200	     5.385
  88.920	        18	    1200	     4.243
  89.240	        34	    1200	     5.831
  89.560	        25	    1200	     5.000
  89.880	        20	    1200	     4.472
  90.000	        23	    1200	     4.796