File: Ex Situ XRD/STF8 850C 97H2 4Hr.txt
         ID:

    Comment:

Scan Type: Normal
Start Angle: 15 deg.
Stop Angle: 90 deg.
Num Points: 3751
Step Size: 0.02 deg.
Datafile Res: 1600
Scan Rate: 1.000000
Scan Mode: Continuous
Wavelength: 1.540562

Diffractometer Optics:
		Detector:
			 Type: Fixed Slits
			 X2 Configuration: No
		Tube:
			 Type: Fixed Slits
			 X2 Configuration: No

Axis[0]
	 Selected   : no
	 Iterative  : no
	 Start Angle: 0.000000
	 Stop Angle : 0.000000
	 Step Size  : 0.000000
	 Oscillating: no

Axis[1]
	 Selected   : no
	 Iterative  : no
	 Start Angle: 0.000000
	 Stop Angle : 0.000000
	 Step Size  : 0.000000
	 Oscillating: no

Axis[2]
	 Selected   : no
	 Iterative  : no
	 Start Angle: 0.000000
	 Stop Angle : 0.000000
	 Step Size  : 0.000000
	 Oscillating: no

Axis[3]
	 Selected   : no
	 Iterative  : no
	 Start Angle: 0.000000
	 Stop Angle : 0.000000
	 Step Size  : 0.000000
	 Oscillating: no

Axis[4]
	 Selected   : no
	 Iterative  : no
	 Start Angle: 0.000000
	 Stop Angle : 0.000000
	 Step Size  : 0.000000
	 Oscillating: no

Axis[5]
	 Selected   : no
	 Iterative  : no
	 Start Angle: 0.000000
	 Stop Angle : 0.000000
	 Step Size  : 0.000000
	 Oscillating: no

Axis[6]
	 Selected   : no
	 Iterative  : no
	 Start Angle: 0.000000
	 Stop Angle : 0.000000
	 Step Size  : 0.000000
	 Oscillating: no

Axis[7]
	 Selected   : no
	 Iterative  : no
	 Start Angle: 0.000000
	 Stop Angle : 0.000000
	 Step Size  : 0.000000
	 Oscillating: no

Axis[8]
	 Selected   : no
	 Iterative  : no
	 Start Angle: 0.000000
	 Stop Angle : 0.000000
	 Step Size  : 0.000000
	 Oscillating: no

Axis[9]
	 Selected   : no
	 Iterative  : no
	 Start Angle: 0.000000
	 Stop Angle : 0.000000
	 Step Size  : 0.000000
	 Oscillating: no

	   Deg.    Counts 	   Time 	    ESD

Range 0
  15.000	       104	    1200	    10.198
  15.320	       115	    1200	    10.724
  15.640	        95	    1200	     9.747
  15.960	        94	    1200	     9.695
  16.280	        91	    1200	     9.539
  16.600	       105	    1200	    10.247
  16.920	        99	    1200	     9.950
  17.240	        92	    1200	     9.592
  17.560	        96	    1200	     9.798
  17.880	        98	    1200	     9.899
  18.200	        82	    1200	     9.055
  18.520	       107	    1200	    10.344
  18.840	        95	    1200	     9.747
  19.160	       100	    1200	    10.000
  19.480	        99	    1200	     9.950
  19.800	       117	    1200	    10.817
  20.120	        90	    1200	     9.487
  20.440	       107	    1200	    10.344
  20.760	       103	    1200	    10.149
  21.080	       112	    1200	    10.583
  21.400	       108	    1200	    10.392
  21.720	       124	    1200	    11.136
  22.040	       118	    1200	    10.863
  22.360	       108	    1200	    10.392
  22.680	       130	    1200	    11.402
  23.000	       119	    1200	    10.909
  23.320	       115	    1200	    10.724
  23.640	       116	    1200	    10.770
  23.960	       136	    1200	    11.662
  24.280	       126	    1200	    11.225
  24.600	       111	    1200	    10.536
  24.920	       121	    1200	    11.000
  25.240	       103	    1200	    10.149
  25.560	        94	    1200	     9.695
  25.880	        88	    1200	     9.381
  26.200	        77	    1200	     8.775
  26.520	        73	    1200	     8.544
  26.840	        96	    1200	     9.798
  27.160	        91	    1200	     9.539
  27.480	        71	    1200	     8.426
  27.800	        73	    1200	     8.544
  28.120	        55	    1200	     7.416
  28.440	        78	    1200	     8.832
  28.760	        70	    1200	     8.367
  29.080	        69	    1200	     8.307
  29.400	        70	    1200	     8.367
  29.720	        57	    1200	     7.550
  30.040	        61	    1200	     7.810
  30.360	        56	    1200	     7.483
  30.680	        54	    1200	     7.348
  31.000	        97	    1200	     9.849
  31.320	       150	    1200	    12.247
  31.640	       320	    1200	    17.889
  31.960	       234	    1200	    15.297
  32.280	       681	    1200	    26.096
  32.600	       282	    1200	    16.793
  32.920	       112	    1200	    10.583
  33.240	        56	    1200	     7.483
  33.560	        58	    1200	     7.616
  33.880	        55	    1200	     7.416
  34.200	        52	    1200	     7.211
  34.520	        46	    1200	     6.782
  34.840	        53	    1200	     7.280
  35.160	        48	    1200	     6.928
  35.480	        50	    1200	     7.071
  35.800	        49	    1200	     7.000
  36.120	        41	    1200	     6.403
  36.440	        33	    1200	     5.745
  36.760	        36	    1200	     6.000
  37.080	        28	    1200	     5.292
  37.400	        37	    1200	     6.083
  37.720	        36	    1200	     6.000
  38.040	        37	    1200	     6.083
  38.360	        49	    1200	     7.000
  38.680	        53	    1200	     7.280
  39.000	        39	    1200	     6.245
  39.320	        41	    1200	     6.403
  39.640	        53	    1200	     7.280
  39.960	        73	    1200	     8.544
  40.280	        50	    1200	     7.071
  40.600	        34	    1200	     5.831
  40.920	        39	    1200	     6.245
  41.240	        93	    1200	     9.644
  41.560	        56	    1200	     7.483
  41.880	        43	    1200	     6.557
  42.200	        72	    1200	     8.485
  42.520	        26	    1200	     5.099
  42.840	        27	    1200	     5.196
  43.160	        21	    1200	     4.583
  43.480	        28	    1200	     5.292
  43.800	        48	    1200	     6.928
  44.120	        35	    1200	     5.916
  44.440	       139	    1200	    11.790
  44.760	       152	    1200	    12.329
  45.080	        65	    1200	     8.062
  45.400	        73	    1200	     8.544
  45.720	        72	    1200	     8.485
  46.040	        81	    1200	     9.000
  46.360	       321	    1200	    17.916
  46.680	       205	    1200	    14.318
  47.000	       110	    1200	    10.488
  47.320	        40	    1200	     6.325
  47.640	        29	    1200	     5.385
  47.960	        22	    1200	     4.690
  48.280	        21	    1200	     4.583
  48.600	        14	    1200	     3.742
  48.920	        20	    1200	     4.472
  49.240	        14	    1200	     3.742
  49.560	        21	    1200	     4.583
  49.880	        21	    1200	     4.583
  50.200	        18	    1200	     4.243
  50.520	        12	    1200	     3.464
  50.840	        17	    1200	     4.123
  51.160	        24	    1200	     4.899
  51.480	        20	    1200	     4.472
  51.800	        14	    1200	     3.742
  52.120	        15	    1200	     3.873
  52.440	        30	    1200	     5.477
  52.760	        20	    1200	     4.472
  53.080	        31	    1200	     5.568
  53.400	        35	    1200	     5.916
  53.720	        21	    1200	     4.583
  54.040	        17	    1200	     4.123
  54.360	        35	    1200	     5.916
  54.680	        28	    1200	     5.292
  55.000	        29	    1200	     5.385
  55.320	        38	    1200	     6.164
  55.640	        38	    1200	     6.164
  55.960	        32	    1200	     5.657
  56.280	        63	    1200	     7.937
  56.600	        40	    1200	     6.325
  56.920	        60	    1200	     7.746
  57.240	       126	    1200	    11.225
  57.560	       285	    1200	    16.882
  57.880	       187	    1200	    13.675
  58.200	        95	    1200	     9.747
  58.520	        73	    1200	     8.544
  58.840	        53	    1200	     7.280
  59.160	        40	    1200	     6.325
  59.480	        32	    1200	     5.657
  59.800	        30	    1200	     5.477
  60.120	        43	    1200	     6.557
  60.440	        31	    1200	     5.568
  60.760	        22	    1200	     4.690
  61.080	        25	    1200	     5.000
  61.400	        17	    1200	     4.123
  61.720	        20	    1200	     4.472
  62.040	        13	    1200	     3.606
  62.360	        19	    1200	     4.359
  62.680	        20	    1200	     4.472
  63.000	        19	    1200	     4.359
  63.320	        20	    1200	     4.472
  63.640	        29	    1200	     5.385
  63.960	        21	    1200	     4.583
  64.280	        35	    1200	     5.916
  64.600	        32	    1200	     5.657
  64.920	        43	    1200	     6.557
  65.240	        43	    1200	     6.557
  65.560	        25	    1200	     5.000
  65.880	        38	    1200	     6.164
  66.200	        51	    1200	     7.141
  66.520	        49	    1200	     7.000
  66.840	        45	    1200	     6.708
  67.160	        53	    1200	     7.280
  67.480	        72	    1200	     8.485
  67.800	       132	    1200	    11.489
  68.120	       110	    1200	    10.488
  68.440	        62	    1200	     7.874
  68.760	        37	    1200	     6.083
  69.080	        33	    1200	     5.745
  69.400	        22	    1200	     4.690
  69.720	         9	    1200	     3.000
  70.040	        14	    1200	     3.742
  70.360	        15	    1200	     3.873
  70.680	         9	    1200	     3.000
  71.000	        16	    1200	     4.000
  71.320	        18	    1200	     4.243
  71.640	        21	    1200	     4.583
  71.960	        27	    1200	     5.196
  72.280	        17	    1200	     4.123
  72.600	        18	    1200	     4.243
  72.920	        17	    1200	     4.123
  73.240	        20	    1200	     4.472
  73.560	        26	    1200	     5.099
  73.880	        24	    1200	     4.899
  74.200	        34	    1200	     5.831
  74.520	        30	    1200	     5.477
  74.840	        16	    1200	     4.000
  75.160	        32	    1200	     5.657
  75.480	        24	    1200	     4.899
  75.800	        22	    1200	     4.690
  76.120	        25	    1200	     5.000
  76.440	        34	    1200	     5.831
  76.760	        59	    1200	     7.681
  77.080	        80	    1200	     8.944
  77.400	        94	    1200	     9.695
  77.720	        87	    1200	     9.327
  78.040	        54	    1200	     7.348
  78.360	        35	    1200	     5.916
  78.680	        39	    1200	     6.245
  79.000	        25	    1200	     5.000
  79.320	        18	    1200	     4.243
  79.640	        23	    1200	     4.796
  79.960	        21	    1200	     4.583
  80.280	        21	    1200	     4.583
  80.600	        13	    1200	     3.606
  80.920	        17	    1200	     4.123
  81.240	        20	    1200	     4.472
  81.560	        28	    1200	     5.292
  81.880	        32	    1200	     5.657
  82.200	        52	    1200	     7.211
  82.520	        44	    1200	     6.633
  82.840	        43	    1200	     6.557
  83.160	        28	    1200	     5.292
  83.480	        19	    1200	     4.359
  83.800	        12	    1200	     3.464
  84.120	        23	    1200	     4.796
  84.440	        33	    1200	     5.745
  84.760	        33	    1200	     5.745
  85.080	        37	    1200	     6.083
  85.400	        28	    1200	     5.292
  85.720	        35	    1200	     5.916
  86.040	        29	    1200	     5.385
  86.360	        29	    1200	     5.385
  86.680	        23	    1200	     4.796
  87.000	        26	    1200	     5.099
  87.320	        22	    1200	     4.690
  87.640	        18	    1200	     4.243
  87.960	        20	    1200	     4.472
  88.280	        26	    1200	     5.099
  88.600	        21	    1200	     4.583
  88.920	        17	    1200	     4.123
  89.240	        25	    1200	     5.000
  89.560	        22	    1200	     4.690
  89.880	        25	    1200	     5.000
  90.000	        18	    1200	     4.243