File: Ex Situ XRD/STF8 850C 30H2 4Hr.txt
         ID:

    Comment:

Scan Type: Normal
Start Angle: 15 deg.
Stop Angle: 90 deg.
Num Points: 3751
Step Size: 0.02 deg.
Datafile Res: 1600
Scan Rate: 1.000000
Scan Mode: Continuous
Wavelength: 1.540562

Diffractometer Optics:
		Detector:
			 Type: Fixed Slits
			 X2 Configuration: No
		Tube:
			 Type: Fixed Slits
			 X2 Configuration: No

Axis[0]
	 Selected   : no
	 Iterative  : no
	 Start Angle: 0.000000
	 Stop Angle : 0.000000
	 Step Size  : 0.000000
	 Oscillating: no

Axis[1]
	 Selected   : no
	 Iterative  : no
	 Start Angle: 0.000000
	 Stop Angle : 0.000000
	 Step Size  : 0.000000
	 Oscillating: no

Axis[2]
	 Selected   : no
	 Iterative  : no
	 Start Angle: 0.000000
	 Stop Angle : 0.000000
	 Step Size  : 0.000000
	 Oscillating: no

Axis[3]
	 Selected   : no
	 Iterative  : no
	 Start Angle: 0.000000
	 Stop Angle : 0.000000
	 Step Size  : 0.000000
	 Oscillating: no

Axis[4]
	 Selected   : no
	 Iterative  : no
	 Start Angle: 0.000000
	 Stop Angle : 0.000000
	 Step Size  : 0.000000
	 Oscillating: no

Axis[5]
	 Selected   : no
	 Iterative  : no
	 Start Angle: 0.000000
	 Stop Angle : 0.000000
	 Step Size  : 0.000000
	 Oscillating: no

Axis[6]
	 Selected   : no
	 Iterative  : no
	 Start Angle: 0.000000
	 Stop Angle : 0.000000
	 Step Size  : 0.000000
	 Oscillating: no

Axis[7]
	 Selected   : no
	 Iterative  : no
	 Start Angle: 0.000000
	 Stop Angle : 0.000000
	 Step Size  : 0.000000
	 Oscillating: no

Axis[8]
	 Selected   : no
	 Iterative  : no
	 Start Angle: 0.000000
	 Stop Angle : 0.000000
	 Step Size  : 0.000000
	 Oscillating: no

Axis[9]
	 Selected   : no
	 Iterative  : no
	 Start Angle: 0.000000
	 Stop Angle : 0.000000
	 Step Size  : 0.000000
	 Oscillating: no

	   Deg.    Counts 	   Time 	    ESD

Range 0
  15.000	       117	    1200	    10.817
  15.320	       113	    1200	    10.630
  15.640	       108	    1200	    10.392
  15.960	       110	    1200	    10.488
  16.280	        81	    1200	     9.000
  16.600	       117	    1200	    10.817
  16.920	        99	    1200	     9.950
  17.240	       114	    1200	    10.677
  17.560	       113	    1200	    10.630
  17.880	       101	    1200	    10.050
  18.200	       111	    1200	    10.536
  18.520	        88	    1200	     9.381
  18.840	        97	    1200	     9.849
  19.160	        77	    1200	     8.775
  19.480	       107	    1200	    10.344
  19.800	        91	    1200	     9.539
  20.120	        73	    1200	     8.544
  20.440	       105	    1200	    10.247
  20.760	        88	    1200	     9.381
  21.080	        99	    1200	     9.950
  21.400	       102	    1200	    10.100
  21.720	        90	    1200	     9.487
  22.040	        93	    1200	     9.644
  22.360	       121	    1200	    11.000
  22.680	        78	    1200	     8.832
  23.000	       102	    1200	    10.100
  23.320	        80	    1200	     8.944
  23.640	        98	    1200	     9.899
  23.960	        65	    1200	     8.062
  24.280	        81	    1200	     9.000
  24.600	        78	    1200	     8.832
  24.920	        70	    1200	     8.367
  25.240	        76	    1200	     8.718
  25.560	        65	    1200	     8.062
  25.880	        73	    1200	     8.544
  26.200	        77	    1200	     8.775
  26.520	        52	    1200	     7.211
  26.840	        50	    1200	     7.071
  27.160	        59	    1200	     7.681
  27.480	        57	    1200	     7.550
  27.800	        46	    1200	     6.782
  28.120	        44	    1200	     6.633
  28.440	        55	    1200	     7.416
  28.760	        62	    1200	     7.874
  29.080	        68	    1200	     8.246
  29.400	        39	    1200	     6.245
  29.720	        52	    1200	     7.211
  30.040	        48	    1200	     6.928
  30.360	        49	    1200	     7.000
  30.680	        53	    1200	     7.280
  31.000	        54	    1200	     7.348
  31.320	       279	    1200	    16.703
  31.640	       192	    1200	    13.856
  31.960	       943	    1200	    30.708
  32.280	       715	    1200	    26.739
  32.600	        92	    1200	     9.592
  32.920	        69	    1200	     8.307
  33.240	        43	    1200	     6.557
  33.560	        51	    1200	     7.141
  33.880	        43	    1200	     6.557
  34.200	        47	    1200	     6.856
  34.520	        35	    1200	     5.916
  34.840	        24	    1200	     4.899
  35.160	        27	    1200	     5.196
  35.480	        30	    1200	     5.477
  35.800	        26	    1200	     5.099
  36.120	        23	    1200	     4.796
  36.440	        23	    1200	     4.796
  36.760	        28	    1200	     5.292
  37.080	        16	    1200	     4.000
  37.400	        18	    1200	     4.243
  37.720	        27	    1200	     5.196
  38.040	        30	    1200	     5.477
  38.360	        21	    1200	     4.583
  38.680	        23	    1200	     4.796
  39.000	        54	    1200	     7.348
  39.320	        50	    1200	     7.071
  39.640	       206	    1200	    14.353
  39.960	        58	    1200	     7.616
  40.280	        27	    1200	     5.196
  40.600	        26	    1200	     5.099
  40.920	        69	    1200	     8.307
  41.240	       105	    1200	    10.247
  41.560	        26	    1200	     5.099
  41.880	        16	    1200	     4.000
  42.200	        20	    1200	     4.472
  42.520	        29	    1200	     5.385
  42.840	        19	    1200	     4.359
  43.160	        16	    1200	     4.000
  43.480	        27	    1200	     5.196
  43.800	        32	    1200	     5.657
  44.120	        26	    1200	     5.099
  44.440	        90	    1200	     9.487
  44.760	        52	    1200	     7.211
  45.080	        32	    1200	     5.657
  45.400	        61	    1200	     7.810
  45.720	       155	    1200	    12.450
  46.040	       314	    1200	    17.720
  46.360	       296	    1200	    17.205
  46.680	        74	    1200	     8.602
  47.000	        33	    1200	     5.745
  47.320	        44	    1200	     6.633
  47.640	        29	    1200	     5.385
  47.960	        26	    1200	     5.099
  48.280	        15	    1200	     3.873
  48.600	        19	    1200	     4.359
  48.920	        22	    1200	     4.690
  49.240	        20	    1200	     4.472
  49.560	        21	    1200	     4.583
  49.880	        15	    1200	     3.873
  50.200	        19	    1200	     4.359
  50.520	        25	    1200	     5.000
  50.840	        20	    1200	     4.472
  51.160	        25	    1200	     5.000
  51.480	        26	    1200	     5.099
  51.800	        23	    1200	     4.796
  52.120	        32	    1200	     5.657
  52.440	        23	    1200	     4.796
  52.760	        20	    1200	     4.472
  53.080	        22	    1200	     4.690
  53.400	        22	    1200	     4.690
  53.720	        18	    1200	     4.243
  54.040	        14	    1200	     3.742
  54.360	        15	    1200	     3.873
  54.680	        15	    1200	     3.873
  55.000	        24	    1200	     4.899
  55.320	        43	    1200	     6.557
  55.640	        31	    1200	     5.568
  55.960	        30	    1200	     5.477
  56.280	        35	    1200	     5.916
  56.600	        77	    1200	     8.775
  56.920	       108	    1200	    10.392
  57.240	       282	    1200	    16.793
  57.560	       408	    1200	    20.199
  57.880	        88	    1200	     9.381
  58.200	        45	    1200	     6.708
  58.520	        28	    1200	     5.292
  58.840	        27	    1200	     5.196
  59.160	        27	    1200	     5.196
  59.480	        27	    1200	     5.196
  59.800	        25	    1200	     5.000
  60.120	        12	    1200	     3.464
  60.440	        21	    1200	     4.583
  60.760	        22	    1200	     4.690
  61.080	        23	    1200	     4.796
  61.400	        18	    1200	     4.243
  61.720	        19	    1200	     4.359
  62.040	        17	    1200	     4.123
  62.360	        16	    1200	     4.000
  62.680	        30	    1200	     5.477
  63.000	        23	    1200	     4.796
  63.320	        28	    1200	     5.292
  63.640	        49	    1200	     7.000
  63.960	        35	    1200	     5.916
  64.280	        31	    1200	     5.568
  64.600	        30	    1200	     5.477
  64.920	        23	    1200	     4.796
  65.240	        21	    1200	     4.583
  65.560	        20	    1200	     4.472
  65.880	        38	    1200	     6.164
  66.200	        25	    1200	     5.000
  66.520	        25	    1200	     5.000
  66.840	        42	    1200	     6.481
  67.160	       111	    1200	    10.536
  67.480	       183	    1200	    13.528
  67.800	       118	    1200	    10.863
  68.120	        47	    1200	     6.856
  68.440	        34	    1200	     5.831
  68.760	        25	    1200	     5.000
  69.080	        23	    1200	     4.796
  69.400	        19	    1200	     4.359
  69.720	        22	    1200	     4.690
  70.040	        10	    1200	     3.162
  70.360	         9	    1200	     3.000
  70.680	        14	    1200	     3.742
  71.000	        24	    1200	     4.899
  71.320	        20	    1200	     4.472
  71.640	        20	    1200	     4.472
  71.960	        19	    1200	     4.359
  72.280	        32	    1200	     5.657
  72.600	        22	    1200	     4.690
  72.920	        24	    1200	     4.899
  73.240	        21	    1200	     4.583
  73.560	        17	    1200	     4.123
  73.880	        10	    1200	     3.162
  74.200	         9	    1200	     3.000
  74.520	        17	    1200	     4.123
  74.840	        17	    1200	     4.123
  75.160	         8	    1200	     2.828
  75.480	        26	    1200	     5.099
  75.800	        22	    1200	     4.690
  76.120	        39	    1200	     6.245
  76.440	        72	    1200	     8.485
  76.760	       144	    1200	    12.000
  77.080	        90	    1200	     9.487
  77.400	        69	    1200	     8.307
  77.720	        44	    1200	     6.633
  78.040	        28	    1200	     5.292
  78.360	        30	    1200	     5.477
  78.680	        19	    1200	     4.359
  79.000	        22	    1200	     4.690
  79.320	        19	    1200	     4.359
  79.640	        12	    1200	     3.464
  79.960	        22	    1200	     4.690
  80.280	        25	    1200	     5.000
  80.600	        28	    1200	     5.292
  80.920	        20	    1200	     4.472
  81.240	        44	    1200	     6.633
  81.560	        39	    1200	     6.245
  81.880	        33	    1200	     5.745
  82.200	        35	    1200	     5.916
  82.520	        41	    1200	     6.403
  82.840	        39	    1200	     6.245
  83.160	        23	    1200	     4.796
  83.480	         9	    1200	     3.000
  83.800	        20	    1200	     4.472
  84.120	        22	    1200	     4.690
  84.440	        28	    1200	     5.292
  84.760	        22	    1200	     4.690
  85.080	        21	    1200	     4.583
  85.400	        30	    1200	     5.477
  85.720	        51	    1200	     7.141
  86.040	        49	    1200	     7.000
  86.360	        33	    1200	     5.745
  86.680	        16	    1200	     4.000
  87.000	        17	    1200	     4.123
  87.320	        15	    1200	     3.873
  87.640	        19	    1200	     4.359
  87.960	        16	    1200	     4.000
  88.280	        21	    1200	     4.583
  88.600	        15	    1200	     3.873
  88.920	        21	    1200	     4.583
  89.240	        17	    1200	     4.123
  89.560	        16	    1200	     4.000
  89.880	        19	    1200	     4.359
  90.000	        19	    1200	     4.359